X (mg),Y (mg),Z (mg)
-3,3,1026
-7,2,1025
0,2,1025
-8,2,1026
-3,4,1026
-3,1,1025
-6,4,1025
-1,1,1024
-6,1,1025
-4,2,1025
-3,2,1024
-4,1,1025
-5,0,1026
5,-15,1028
6,-1,1057
202,31,996
331,1,986
446,-4,897
542,-11,886
655,15,750
797,26,599
863,26,514
908,7,430
897,-1,431
955,15,311
979,12,241
973,22,178
1110,26,-96
999,15,86
1000,27,85
998,19,89
999,14,93
999,19,89
999,14,90
999,18,92
999,21,88
999,17,89
999,18,90
999,17,88
1000,14,87
1055,17,10
972,19,210
983,16,239
838,-18,499
811,10,583
722,4,692
638,34,777
550,-23,913
471,4,927
401,-11,960
387,9,923
313,4,965
224,1,1027
187,-6,1010
124,31,1001
33,-7,1056
5,6,1019
-7,-6,1024
-4,2,1024
-7,-1,1024
-6,2,1024